LabVIEW Measurement	
Writer_Version	2
Reader_Version	2
Separator	Tab
Decimal_Separator	.
Multi_Headings	Yes
X_Columns	One
Time_Pref	Absolute
Operator	oscar
Date	1903/12/31
Time	19:00:00
***End_of_Header***	
	
Channels	6						
Samples	300	300	300	300	300	300	
Date	1903/12/31	1903/12/31	1903/12/31	1903/12/31	1903/12/31	1903/12/31	
Time	19:00:00	19:00:00	19:00:00	19:00:00	19:00:00	19:00:00	
X_Dimension							
X0	0.0000000000000000E+0	0.0000000000000000E+0	0.0000000000000000E+0	0.0000000000000000E+0	0.0000000000000000E+0	0.0000000000000000E+0	
Delta_X	1.000000	1.000000	1.000000	1.000000	1.000000	1.000000	
***End_of_Header***							
X_Value	Untitled	Untitled 1	Untitled 2	Untitled 3	Untitled 4	Untitled 5	Comment
0.000000	0.000000	0.008517	0.000000	0.627838	0.000000	0.005455
1.000000	0.033002	0.021639	0.033002	0.627838	0.033002	0.005455
2.000000	0.066003	0.036411	0.066004	0.607442	0.066004	0.005455
3.000000	0.099005	0.050671	0.099006	0.576847	0.099006	0.005455
4.000000	0.132007	0.062920	0.133008	0.525857	0.133008	0.005455
5.000000	0.165009	0.072212	0.167009	0.464668	0.167009	0.005455
6.000000	0.198011	0.078049	0.200011	0.393282	0.200011	0.005455
7.000000	0.231013	0.080304	0.233013	0.311697	0.233013	0.005455
8.000000	0.264015	0.079132	0.266015	0.219914	0.266015	0.005455
9.000000	0.297017	0.074899	0.298017	0.158725	0.298017	0.005455
10.000000	0.330019	0.068119	0.332019	0.077141	0.332019	0.005455
11.000000	0.363020	0.059392	0.365021	0.015952	0.365021	0.005455
12.000000	0.396022	0.049353	0.397023	-0.045237	0.397023	0.005455
13.000000	0.429024	0.038629	0.431025	-0.075831	0.431025	0.005455
14.000000	0.462026	0.027805	0.464026	-0.116623	0.464026	0.005455
15.000000	0.495028	0.017399	0.497028	-0.126821	0.497028	0.005455
16.000000	0.528030	0.007840	0.530030	-0.126821	0.530030	0.005455
17.000000	0.561032	-0.000539	0.563032	-0.126821	0.563032	0.005455
18.000000	0.594034	-0.007506	0.596034	-0.116623	0.596034	0.005455
19.000000	0.627036	-0.012928	0.629036	-0.096227	0.629036	0.005455
20.000000	0.660038	-0.016766	0.662038	-0.075831	0.662038	0.005455
21.000000	0.693039	-0.019061	0.694040	-0.055435	0.694040	0.005455
22.000000	0.726041	-0.019922	0.728042	-0.024840	0.728042	0.005455
23.000000	0.759043	-0.019513	0.761044	-0.004444	0.761044	0.005455
24.000000	0.792045	-0.018037	0.794045	0.015952	0.794045	0.005455
25.000000	0.825047	-0.015716	0.827047	0.026150	0.827047	0.005455
26.000000	0.858049	-0.012787	0.860049	0.036348	0.860049	0.005455
27.000000	0.891051	-0.009478	0.893051	0.046546	0.893051	0.005455
28.000000	0.924053	-0.006005	0.926053	0.046546	0.926053	0.005455
29.000000	0.957055	-0.002562	0.958055	0.046546	0.958055	0.005455
30.000000	0.990057	0.000687	0.991057	0.046546	0.991057	0.005455
31.000000	1.023058	0.003612	1.025059	0.036348	1.025059	0.005455
32.000000	1.056060	0.006114	1.058061	0.036348	1.058061	0.005455
33.000000	1.089062	0.008133	1.090062	0.026150	1.090062	0.005455
34.000000	1.122064	0.009637	1.123064	0.015952	1.123064	0.005455
35.000000	1.155066	0.010627	1.155066	0.015952	1.155066	0.005455
36.000000	1.188068	0.011127	1.189068	0.005754	1.189068	0.005455
37.000000	1.221070	0.011183	1.223070	0.005754	1.223070	0.005455
38.000000	1.254072	0.010854	1.255072	-0.004444	1.255072	0.005455
39.000000	1.287074	0.010211	1.288074	-0.014642	1.288074	0.005455
40.000000	1.320076	0.009331	1.321075	-0.004444	1.321075	0.005455
41.000000	1.353077	0.008289	1.354077	-0.004444	1.354077	0.005455
42.000000	1.386079	0.007161	1.388080	-0.014642	1.388080	0.005455
43.000000	1.419081	0.006012	1.421082	-0.004444	1.421082	0.005455
44.000000	1.452083	0.004903	1.454083	-0.004444	1.454083	0.005455
45.000000	1.485085	0.003881	1.486085	-0.004444	1.486085	0.005455
46.000000	1.518086	0.002984	1.520087	-0.004444	1.520087	0.005455
47.000000	1.551088	0.002239	1.553089	0.005754	1.553089	0.005455
48.000000	1.584090	0.001660	1.586091	0.005754	1.586091	0.005455
49.000000	1.617092	0.001251	1.619092	0.005754	1.619092	0.005455
50.000000	1.650094	0.001009	1.651094	0.005754	1.651094	0.005455
51.000000	1.683096	0.000922	1.685096	0.005754	1.685096	0.005455
52.000000	1.716098	0.000971	1.719099	0.005754	1.719099	0.005455
53.000000	1.749100	0.001136	1.754100	0.005754	1.754100	0.005455
54.000000	1.782102	0.001391	1.785102	0.005754	1.785102	0.005455
55.000000	1.815104	0.001712	1.815104	0.005754	1.815104	0.005455
56.000000	1.848105	0.002073	1.848106	0.005754	1.848106	0.005455
57.000000	1.881107	0.002451	1.881108	0.005754	1.881108	0.005455
58.000000	1.914109	0.002826	1.915110	0.005754	1.915110	0.005455
59.000000	1.947111	0.003179	1.949111	0.005754	1.949111	0.005455
60.000000	1.980113	0.003496	1.982113	0.005754	1.982113	0.005455
61.000000	2.013115	0.003767	2.015115	0.005754	2.015115	0.005455
62.000000	2.046117	0.003985	2.048117	0.005754	2.048117	0.005455
63.000000	2.079119	0.004147	2.081119	0.005754	2.081119	0.005455
64.000000	2.112121	0.004253	2.114121	0.005754	2.114121	0.005455
65.000000	2.145123	0.004306	2.147123	0.005754	2.147123	0.015666
66.000000	2.178124	0.004398	2.180125	0.005754	2.180125	0.005455
67.000000	2.211126	0.004494	2.212127	0.005754	2.212127	0.005455
68.000000	2.244128	0.004573	2.246129	0.005754	2.246129	0.005455
69.000000	2.277130	0.004621	2.279130	0.005754	2.279130	0.005455
70.000000	2.310132	0.004629	2.312132	0.005754	2.312132	0.005455
71.000000	2.343134	0.004598	2.344134	0.005754	2.344134	0.005455
72.000000	2.376136	0.004528	2.377136	0.005754	2.377136	0.005455
73.000000	2.409138	0.004427	2.411138	0.005754	2.411138	0.005455
74.000000	2.442140	0.004300	2.444140	0.005754	2.444140	0.005455
75.000000	2.475142	0.004155	2.477142	0.005754	2.477142	0.005455
76.000000	2.508143	0.004001	2.510144	0.005754	2.510144	0.005455
77.000000	2.541145	0.003846	2.542145	0.005754	2.542145	0.005455
78.000000	2.574147	0.003696	2.575147	0.005754	2.575147	0.005455
79.000000	2.607149	0.003558	2.609149	0.005754	2.609149	0.005455
80.000000	2.640151	0.003437	2.642151	0.005754	2.642151	0.005455
81.000000	2.673153	0.003335	2.675153	0.005754	2.675153	0.005455
82.000000	2.706155	0.003255	2.708155	0.005754	2.708155	0.005455
83.000000	2.739156	0.003197	2.740157	0.005754	2.740157	0.005455
84.000000	2.772158	0.003161	2.773159	0.005754	2.773159	0.005455
85.000000	2.805160	0.003146	2.806160	0.005754	2.806160	0.005455
86.000000	2.838162	0.003149	2.839162	0.005754	2.839162	0.005455
87.000000	2.871164	0.003167	2.872164	0.005754	2.872164	0.005455
88.000000	2.904166	0.003198	2.906166	0.005754	2.906166	0.005455
89.000000	2.937168	0.003238	2.939168	0.005754	2.939168	0.005455
90.000000	2.970170	0.003284	2.972170	0.005754	2.972170	0.005455
91.000000	3.003171	0.003332	3.005172	0.005754	3.005172	0.036090
92.000000	3.036173	0.003642	3.038174	0.005754	3.038174	0.066725
93.000000	3.069175	0.004610	3.070176	0.005754	3.070176	0.097360
94.000000	3.102177	0.006685	3.103178	0.005754	3.103178	0.138207
95.000000	3.135179	0.010382	3.137179	0.005754	3.137179	0.168842
96.000000	3.168181	0.016114	3.170181	0.015952	3.170181	0.199477
97.000000	3.201183	0.024171	3.202183	0.026150	3.202183	0.240324
98.000000	3.234185	0.034800	3.235185	0.026150	3.235185	0.270959
99.000000	3.267187	0.048084	3.268187	0.046546	3.268187	0.301594
100.000000	3.300189	0.063959	3.301189	0.056744	3.301189	0.332230
101.000000	3.333190	0.082241	3.335191	0.077141	3.335191	0.373076
102.000000	3.366192	0.102742	3.368193	0.097537	3.368193	0.403712
103.000000	3.399194	0.125163	3.401195	0.117933	3.401195	0.434347
104.000000	3.432196	0.149138	3.434196	0.138329	3.434196	0.475194
105.000000	3.465198	0.174352	3.467198	0.168923	3.467198	0.495617
106.000000	3.498200	0.200350	3.500200	0.189320	3.500200	0.526252
107.000000	3.531202	0.226705	3.532202	0.219914	3.532202	0.567099
108.000000	3.564204	0.253121	3.566204	0.250508	3.566204	0.597734
109.000000	3.597206	0.279314	3.598206	0.270904	3.598206	0.638581
110.000000	3.630208	0.305124	3.630208	0.291301	3.630208	0.669216
111.000000	3.663209	0.330392	3.665210	0.321895	3.665210	0.699851
112.000000	3.696211	0.354986	3.698212	0.332093	3.698212	0.730487
113.000000	3.729213	0.378803	3.731214	0.352489	3.731214	0.771333
114.000000	3.762215	0.401867	3.764215	0.383084	3.764215	0.801969
115.000000	3.795217	0.424201	3.797217	0.403480	3.797217	0.822392
116.000000	3.828219	0.445749	3.830219	0.423876	3.830219	0.863239
117.000000	3.861221	0.466593	3.862221	0.434074	3.862221	0.904086
118.000000	3.894223	0.486908	3.896223	0.464668	3.896223	0.934721
119.000000	3.927225	0.506828	3.929225	0.485065	3.929225	0.965356
120.000000	3.960227	0.526464	3.961226	0.495263	3.961226	0.995991
121.000000	3.993228	0.545902	3.995229	0.515659	3.995229	0.005455
122.000000	4.026230	0.556514	4.027230	0.536055	4.027230	0.005455
123.000000	4.059232	0.553441	4.061233	0.536055	4.061233	0.005455
124.000000	4.092234	0.534713	4.094234	0.525857	4.094234	0.005455
125.000000	4.125236	0.500518	4.127236	0.495263	4.127236	0.005455
126.000000	4.158237	0.452583	4.159238	0.444272	4.159238	0.005455
127.000000	4.191239	0.393643	4.193240	0.383084	4.193240	0.005455
128.000000	4.224241	0.327012	4.225242	0.321895	4.225242	0.005455
129.000000	4.257243	0.256215	4.259243	0.240310	4.259243	0.005455
130.000000	4.290245	0.184706	4.293246	0.168923	4.293246	0.005455
131.000000	4.323247	0.115645	4.325247	0.097537	4.325247	0.005455
132.000000	4.356249	0.051745	4.358249	0.036348	4.358249	0.005455
133.000000	4.389251	-0.004835	4.390251	-0.014642	4.390251	0.005455
134.000000	4.422253	-0.052538	4.423253	-0.065633	4.423253	0.005455
135.000000	4.455255	-0.090414	4.456255	-0.096227	4.456255	0.005455
136.000000	4.488256	-0.118097	4.490257	-0.116623	4.490257	0.005455
137.000000	4.521258	-0.135745	4.522259	-0.116623	4.522259	0.005455
138.000000	4.554260	-0.143968	4.556261	-0.116623	4.556261	0.005455
139.000000	4.587262	-0.143735	4.588263	-0.106425	4.588263	0.005455
140.000000	4.620264	-0.136284	4.624265	-0.096227	4.624265	0.005455
141.000000	4.653266	-0.123020	4.655266	-0.075831	4.655266	0.005455
142.000000	4.686268	-0.105429	4.688268	-0.055435	4.688268	0.005455
143.000000	4.719270	-0.084994	4.722270	-0.035039	4.722270	0.005455
144.000000	4.752272	-0.063123	4.757272	-0.014642	4.757272	0.005455
145.000000	4.785274	-0.041093	4.787274	0.005754	4.787274	0.005455
146.000000	4.818275	-0.020005	4.822276	0.015952	4.822276	0.005455
147.000000	4.851277	-0.000759	4.852278	0.026150	4.852278	0.005455
148.000000	4.884279	0.015965	4.885280	0.036348	4.885280	0.005455
149.000000	4.917281	0.029709	4.918282	0.046546	4.918282	0.005455
150.000000	4.950283	0.040223	4.951283	0.046546	4.951283	0.005455
151.000000	4.983285	0.047451	4.984285	0.046546	4.984285	0.005455
152.000000	5.016287	0.051506	5.017287	0.036348	5.017287	0.005455
153.000000	5.049289	0.052642	5.051289	0.036348	5.051289	0.005455
154.000000	5.082291	0.051216	5.084291	0.026150	5.084291	0.015666
155.000000	5.115293	0.047748	5.117293	0.026150	5.117293	0.005455
156.000000	5.148294	0.042675	5.150295	0.015952	5.150295	0.005455
157.000000	5.181296	0.036454	5.183297	0.005754	5.183297	0.005455
158.000000	5.214298	0.029540	5.216299	0.005754	5.216299	0.005455
159.000000	5.247300	0.022358	5.249300	-0.004444	5.249300	0.005455
160.000000	5.280302	0.015292	5.282302	-0.004444	5.282302	0.005455
161.000000	5.313304	0.008665	5.315304	-0.004444	5.315304	0.005455
162.000000	5.346306	0.002735	5.347306	-0.014642	5.347306	0.005455
163.000000	5.379308	-0.002310	5.381308	-0.014642	5.381308	0.005455
164.000000	5.412309	-0.006352	5.414310	-0.004444	5.414310	0.005455
165.000000	5.445311	-0.009337	5.448312	-0.004444	5.448312	0.005455
166.000000	5.478313	-0.011269	5.480313	-0.004444	5.480313	0.005455
167.000000	5.511315	-0.012206	5.513315	-0.004444	5.513315	0.005455
168.000000	5.544317	-0.012242	5.546317	-0.004444	5.546317	0.005455
169.000000	5.577319	-0.011505	5.578319	0.005754	5.578319	0.005455
170.000000	5.610321	-0.010141	5.612321	0.005754	5.612321	0.005455
171.000000	5.643322	-0.008305	5.645323	0.005754	5.645323	0.005455
172.000000	5.676324	-0.006155	5.678325	0.005754	5.678325	0.005455
173.000000	5.709326	-0.003839	5.711327	0.005754	5.711327	0.005455
174.000000	5.742328	-0.001495	5.743329	0.005754	5.743329	0.005455
175.000000	5.775330	0.000759	5.776330	0.005754	5.776330	0.005455
176.000000	5.808332	0.002825	5.810332	0.005754	5.810332	0.005455
177.000000	5.841334	0.004630	5.843334	0.005754	5.843334	0.005455
178.000000	5.874336	0.006122	5.876336	0.005754	5.876336	0.005455
179.000000	5.907338	0.007273	5.909338	0.005754	5.909338	0.005455
180.000000	5.940340	0.008075	5.942340	0.005754	5.942340	0.005455
181.000000	5.973341	0.008538	5.975342	0.005754	5.975342	0.005455
182.000000	6.006343	0.008688	6.008344	0.005754	6.008344	0.005455
183.000000	6.039345	0.008562	6.040346	0.005754	6.040346	0.005455
184.000000	6.072347	0.008206	6.073348	0.005754	6.073348	0.005455
185.000000	6.105349	0.007669	6.106349	0.005754	6.106349	0.015666
186.000000	6.138351	0.007090	6.139351	0.005754	6.139351	0.005455
187.000000	6.171353	0.006480	6.173353	0.005754	6.173353	0.005455
188.000000	6.204355	0.005856	6.206355	0.005754	6.206355	0.005455
189.000000	6.237357	0.005237	6.238357	0.005754	6.238357	0.005455
190.000000	6.270359	0.004644	6.272359	0.005754	6.272359	0.005455
191.000000	6.303360	0.004096	6.305361	0.005754	6.305361	0.005455
192.000000	6.336362	0.003608	6.338363	0.005754	6.338363	0.005455
193.000000	6.369364	0.003191	6.370365	0.005754	6.370365	0.005455
194.000000	6.402366	0.002855	6.403366	0.005754	6.403366	0.005455
195.000000	6.435368	0.002601	6.437368	0.005754	6.437368	0.005455
196.000000	6.468370	0.002429	6.469370	0.005754	6.469370	0.005455
197.000000	6.501372	0.002335	6.503372	0.005754	6.503372	0.005455
198.000000	6.534374	0.002312	6.536374	0.005754	6.536374	0.005455
199.000000	6.567376	0.002350	6.569376	0.005754	6.569376	0.005455
200.000000	6.600378	0.002439	6.601377	0.005754	6.601377	0.005455
201.000000	6.633379	0.002566	6.634379	0.005754	6.634379	0.005455
202.000000	6.666381	0.002720	6.667381	0.005754	6.667381	0.005455
203.000000	6.699383	0.002889	6.700383	0.005754	6.700383	0.005455
204.000000	6.732385	0.003063	6.734385	0.005754	6.734385	0.015666
205.000000	6.765387	0.003320	6.767387	0.005754	6.767387	0.005455
206.000000	6.798388	0.003610	6.800389	0.005754	6.800389	0.005455
207.000000	6.831390	0.003899	6.833391	0.005754	6.833391	0.005455
208.000000	6.864392	0.004159	6.865393	0.005754	6.865393	0.005455
209.000000	6.897394	0.004373	6.899395	-0.004444	6.899395	0.005455
210.000000	6.930396	0.004530	6.931396	0.005754	6.931396	0.005455
211.000000	6.963398	0.004626	6.965398	0.005754	6.965398	0.005455
212.000000	6.996400	0.004662	6.998400	0.005754	6.998400	0.005455
213.000000	7.029402	0.004641	7.031402	0.005754	7.031402	0.005455
214.000000	7.062404	0.004570	7.064404	0.005754	7.064404	0.005455
215.000000	7.095406	0.004460	7.097406	0.005754	7.097406	0.005455
216.000000	7.128407	0.004320	7.130408	0.005754	7.130408	0.005455
217.000000	7.161409	0.004160	7.163410	0.005754	7.163410	0.005455
218.000000	7.194411	0.003991	7.196412	0.005754	7.196412	0.005455
219.000000	7.227413	0.003821	7.229414	0.005754	7.229414	0.005455
220.000000	7.260415	0.003659	7.262415	0.005754	7.262415	0.005455
221.000000	7.293417	0.003512	7.295417	-0.004444	7.295417	0.005455
222.000000	7.326419	0.003384	7.328419	0.005754	7.328419	0.005455
223.000000	7.359421	0.003278	7.361421	0.005754	7.361421	0.005455
224.000000	7.392423	0.003198	7.394423	0.005754	7.394423	0.005455
225.000000	7.425425	0.003142	7.427425	0.005754	7.427425	0.005455
226.000000	7.458426	0.003111	7.460427	0.005754	7.460427	0.005455
227.000000	7.491428	0.003101	7.493429	0.005754	7.493429	0.005455
228.000000	7.524430	0.003112	7.526431	0.005754	7.526431	0.005455
229.000000	7.557432	0.003138	7.559433	0.005754	7.559433	0.005455
230.000000	7.590434	0.003177	7.591434	0.005754	7.591434	0.005455
231.000000	7.623436	0.003225	7.625436	0.005754	7.625436	0.005455
232.000000	7.656438	0.003278	7.657438	0.005754	7.657438	0.005455
233.000000	7.689440	0.003334	7.691440	0.005754	7.691440	0.005455
234.000000	7.722442	0.003388	7.725442	0.005754	7.725442	0.005455
235.000000	7.756444	0.003438	7.761444	0.005754	7.761444	0.005455
236.000000	7.793446	0.003483	7.803446	0.005754	7.803446	0.005455
237.000000	7.841448	0.003522	7.840448	0.005754	7.840448	0.005455
238.000000	7.874450	0.003552	7.874451	0.005754	7.874451	0.005455
239.000000	7.907452	0.003574	7.908453	-0.004444	7.908453	0.005455
240.000000	7.940454	0.003588	7.942454	-0.004444	7.942454	0.005455
241.000000	7.973456	0.003595	7.976456	0.005754	7.976456	0.005455
242.000000	8.006458	0.003594	8.008458	0.005754	8.008458	0.005455
243.000000	8.039460	0.003588	8.041460	0.005754	8.041460	0.005455
244.000000	8.072462	0.003577	8.073462	0.005754	8.073462	0.005455
245.000000	8.105464	0.003562	8.106464	0.005754	8.106464	0.005455
246.000000	8.138465	0.003545	8.140466	0.005754	8.140466	0.005455
247.000000	8.171467	0.003527	8.172467	0.005754	8.172467	0.005455
248.000000	8.204469	0.003509	8.205469	0.005754	8.205469	0.005455
249.000000	8.237471	0.003492	8.239471	0.005754	8.239471	0.005455
250.000000	8.270473	0.003476	8.272473	0.005754	8.272473	0.005455
251.000000	8.303475	0.003462	8.305475	0.005754	8.305475	0.005455
252.000000	8.336477	0.003451	8.338477	0.005754	8.338477	0.005455
253.000000	8.369479	0.003442	8.370479	0.005754	8.370479	0.005455
254.000000	8.402481	0.003436	8.404481	0.005754	8.404481	0.005455
255.000000	8.435483	0.003433	8.437483	0.005754	8.437483	0.005455
256.000000	8.468484	0.003432	8.470485	0.005754	8.470485	0.005455
257.000000	8.501486	0.003433	8.503487	0.005754	8.503487	0.005455
258.000000	8.534488	0.003436	8.536488	0.005754	8.536488	0.005455
259.000000	8.567490	0.003441	8.569490	0.005754	8.569490	0.005455
260.000000	8.600492	0.003446	8.602492	0.005754	8.602492	0.005455
261.000000	8.634494	0.003452	8.635494	0.005754	8.635494	0.005455
262.000000	8.668496	0.003458	8.669496	0.005754	8.669496	0.005455
263.000000	8.701498	0.003464	8.703498	0.005754	8.703498	0.005455
264.000000	8.734499	0.003469	8.736500	0.005754	8.736500	0.005455
265.000000	8.767501	0.003474	8.769502	0.005754	8.769502	0.005455
266.000000	8.800503	0.003478	8.801504	0.005754	8.801504	0.005455
267.000000	8.833505	0.003481	8.835505	0.005754	8.835505	0.005455
268.000000	8.866507	0.003484	8.867507	0.005754	8.867507	0.005455
269.000000	8.899509	0.003485	8.900509	0.005754	8.900509	0.005455
270.000000	8.932511	0.003486	8.934511	0.005754	8.934511	0.005455
271.000000	8.965513	0.003486	8.967513	0.005754	8.967513	0.005455
272.000000	8.998515	0.003485	8.999515	0.005754	8.999515	0.015666
273.000000	9.031517	0.003571	9.033517	0.005754	9.033517	0.005455
274.000000	9.064518	0.003703	9.065518	0.005754	9.065518	0.005455
275.000000	9.097520	0.003851	9.098520	0.005754	9.098520	0.005455
276.000000	9.130522	0.003992	9.131522	0.005754	9.131522	0.005455
277.000000	9.163524	0.004113	9.164524	0.005754	9.164524	0.005455
278.000000	9.196526	0.004202	9.198526	0.005754	9.198526	0.005455
279.000000	9.229528	0.004256	9.231528	0.005754	9.231528	0.005455
280.000000	9.262530	0.004273	9.264530	0.005754	9.264530	0.005455
281.000000	9.295531	0.004256	9.295532	0.005754	9.295532	0.005455
282.000000	9.328533	0.004207	9.330534	0.005754	9.330534	0.005455
283.000000	9.361535	0.004133	9.362535	0.005754	9.362535	0.005455
284.000000	9.394537	0.004040	9.396537	0.005754	9.396537	0.005455
285.000000	9.427539	0.003935	9.428539	0.005754	9.428539	0.005455
286.000000	9.460541	0.003823	9.462541	0.005754	9.462541	0.005455
287.000000	9.493543	0.003710	9.495543	0.005754	9.495543	0.005455
288.000000	9.526545	0.003603	9.528545	0.005754	9.528545	0.015666
289.000000	9.559546	0.003593	9.561547	0.005754	9.561547	0.005455
290.000000	9.592548	0.003641	9.593549	0.005754	9.593549	0.005455
291.000000	9.625550	0.003720	9.627551	0.005754	9.627551	0.005455
292.000000	9.658552	0.003810	9.660553	0.005754	9.660553	0.005455
293.000000	9.691554	0.003895	9.693554	0.005754	9.693554	0.005455
294.000000	9.724556	0.003964	9.726556	0.005754	9.726556	0.005455
295.000000	9.757558	0.004013	9.759558	0.005754	9.759558	0.005455
296.000000	9.790560	0.004037	9.793560	0.005754	9.793560	0.005455
297.000000	9.823562	0.004038	9.825562	0.005754	9.825562	0.005455
298.000000	9.856564	0.004015	9.859564	0.005754	9.859564	0.005455
299.000000	9.889565	0.003973	9.890566	0.005754	9.890566	0.005455

