LabVIEW Measurement	
Writer_Version	2
Reader_Version	2
Separator	Tab
Decimal_Separator	.
Multi_Headings	Yes
X_Columns	One
Time_Pref	Absolute
Operator	oscar
Date	1903/12/31
Time	19:00:00
***End_of_Header***	
	
Channels	6						
Samples	300	300	300	300	300	300	
Date	1903/12/31	1903/12/31	1903/12/31	1903/12/31	1903/12/31	1903/12/31	
Time	19:00:00	19:00:00	19:00:00	19:00:00	19:00:00	19:00:00	
X_Dimension							
X0	0.0000000000000000E+0	0.0000000000000000E+0	0.0000000000000000E+0	0.0000000000000000E+0	0.0000000000000000E+0	0.0000000000000000E+0	
Delta_X	1.000000	1.000000	1.000000	1.000000	1.000000	1.000000	
***End_of_Header***							
X_Value	Untitled	Untitled 1	Untitled 2	Untitled 3	Untitled 4	Untitled 5	Comment
0.000000	0.000000	0.008517	0.000000	0.005754	0.000000	0.005455
1.000000	0.034002	0.021639	0.034002	0.005754	0.034002	0.005455
2.000000	0.067004	0.036411	0.068004	0.005754	0.068004	0.005455
3.000000	0.100006	0.050671	0.101006	0.005754	0.101006	0.015666
4.000000	0.133008	0.063007	0.134008	0.005754	0.134008	0.005455
5.000000	0.166009	0.072432	0.167010	0.005754	0.167010	0.005455
6.000000	0.199011	0.078420	0.200012	0.005754	0.200012	0.015666
7.000000	0.232013	0.080905	0.233014	0.005754	0.233014	0.005455
8.000000	0.265015	0.079988	0.265016	0.005754	0.265016	0.005455
9.000000	0.298017	0.075997	0.298018	0.005754	0.298018	0.005455
10.000000	0.331019	0.069416	0.332019	0.005754	0.332019	0.005455
11.000000	0.364021	0.060830	0.365021	0.005754	0.365021	0.005455
12.000000	0.397023	0.050866	0.398023	0.005754	0.398023	0.005455
13.000000	0.430025	0.040150	0.431025	0.005754	0.431025	0.005455
14.000000	0.463027	0.029272	0.463027	0.005754	0.463027	0.005455
15.000000	0.496028	0.018756	0.497029	0.005754	0.497029	0.005455
16.000000	0.529030	0.009044	0.530030	0.005754	0.530030	0.005455
17.000000	0.562032	0.000480	0.563032	0.005754	0.563032	0.005455
18.000000	0.595034	-0.006692	0.596034	0.005754	0.596034	0.005455
19.000000	0.628036	-0.012328	0.628036	0.005754	0.628036	0.005455
20.000000	0.661038	-0.016376	0.662038	0.005754	0.662038	0.005455
21.000000	0.694040	-0.018869	0.695040	0.005754	0.695040	0.005455
22.000000	0.727041	-0.019908	0.728042	0.005754	0.728042	0.005455
23.000000	0.760043	-0.019653	0.760044	0.005754	0.760044	0.005455
24.000000	0.793045	-0.018300	0.793046	0.005754	0.793046	0.005455
25.000000	0.826047	-0.016073	0.827047	0.005754	0.827047	0.005455
26.000000	0.859049	-0.013206	0.859049	0.005754	0.859049	0.005455
27.000000	0.892051	-0.009929	0.893051	0.005754	0.893051	0.005455
28.000000	0.925053	-0.006462	0.926053	0.005754	0.926053	0.005455
29.000000	0.958055	-0.003002	0.959055	0.005754	0.959055	0.005455
30.000000	0.991056	0.000284	0.992057	0.005754	0.992057	0.005455
31.000000	1.027059	0.003259	1.027059	0.005754	1.027059	0.005455
32.000000	1.060061	0.005823	1.061061	0.005754	1.061061	0.005455
33.000000	1.093062	0.007908	1.094063	0.005754	1.094063	0.005455
34.000000	1.126064	0.009481	1.126065	0.005754	1.126065	0.005455
35.000000	1.159066	0.010537	1.159067	0.005754	1.159067	0.005455
36.000000	1.192068	0.011098	1.192069	0.005754	1.192069	0.005455
37.000000	1.225070	0.011207	1.226070	0.005754	1.226070	0.005455
38.000000	1.258072	0.010924	1.259072	0.005754	1.259072	0.005455
39.000000	1.291074	0.010316	1.292074	0.005754	1.292074	0.005455
40.000000	1.324076	0.009461	1.325076	0.005754	1.325076	0.005455
41.000000	1.357078	0.008435	1.357078	0.005754	1.357078	0.005455
42.000000	1.390079	0.007312	1.390079	0.005754	1.390079	0.005455
43.000000	1.423081	0.006161	1.424082	0.005754	1.424082	0.005455
44.000000	1.456083	0.005043	1.457084	0.005754	1.457084	0.005455
45.000000	1.489085	0.004006	1.489085	0.005754	1.489085	0.995991
46.000000	1.522087	0.011527	1.522087	0.005754	1.522087	0.995991
47.000000	1.555089	0.032149	1.554089	0.015952	1.554089	0.995991
48.000000	1.588091	0.067451	1.589091	0.056744	1.589091	0.995991
49.000000	1.621093	0.116853	1.621093	0.097537	1.621093	0.995991
50.000000	1.654095	0.178284	1.655095	0.168923	1.655095	0.995991
51.000000	1.687097	0.248739	1.688097	0.240310	1.688097	1.006203
52.000000	1.720098	0.324818	1.720098	0.321895	1.720098	0.995991
53.000000	1.753100	0.402881	1.754101	0.403480	1.754101	0.995991
54.000000	1.786102	0.479469	1.787102	0.485065	1.787102	0.995991
55.000000	1.819104	0.551511	1.819104	0.546253	1.819104	0.995991
56.000000	1.852106	0.616469	1.852106	0.617640	1.852106	0.995991
57.000000	1.885108	0.672420	1.886108	0.668630	1.886108	0.995991
58.000000	1.918109	0.718087	1.918110	0.709423	1.918110	0.995991
59.000000	1.951111	0.752828	1.952112	0.740017	1.952112	0.995991
60.000000	1.984113	0.776591	1.984114	0.750215	1.984114	0.995991
61.000000	2.017115	0.789843	2.018116	0.750215	2.018116	0.995991
62.000000	2.050117	0.793476	2.051117	0.750215	2.051117	0.995991
63.000000	2.083119	0.788717	2.082119	0.740017	2.082119	0.995991
64.000000	2.116121	0.777013	2.116121	0.719621	2.116121	0.995991
65.000000	2.149123	0.759942	2.149123	0.699225	2.149123	0.995991
66.000000	2.182125	0.739113	2.182125	0.668630	2.182125	0.995991
67.000000	2.215127	0.716086	2.216127	0.658432	2.216127	0.995991
68.000000	2.248128	0.692306	2.248129	0.627838	2.248129	0.995991
69.000000	2.281130	0.669045	2.281131	0.617640	2.281131	0.995991
70.000000	2.314132	0.647369	2.315133	0.597244	2.315133	0.995991
71.000000	2.347134	0.628114	2.347135	0.587046	2.347135	0.995991
72.000000	2.380136	0.611879	2.380136	0.576847	2.380136	1.006203
73.000000	2.413138	0.599116	2.414138	0.576847	2.414138	0.995991
74.000000	2.446140	0.589933	2.448140	0.576847	2.448140	0.995991
75.000000	2.479142	0.584252	2.481142	0.576847	2.481142	0.995991
76.000000	2.512144	0.581843	2.513144	0.587046	2.513144	0.995991
77.000000	2.545146	0.582349	2.546146	0.587046	2.546146	0.995991
78.000000	2.578147	0.585325	2.581148	0.597244	2.581148	0.995991
79.000000	2.611149	0.590271	2.612150	0.607442	2.612150	0.995991
80.000000	2.644151	0.596662	2.644152	0.607442	2.644152	0.995991
81.000000	2.677153	0.603979	2.678154	0.627838	2.678154	0.995991
82.000000	2.710155	0.611731	2.711155	0.627838	2.711155	0.995991
83.000000	2.743157	0.619476	2.743157	0.627838	2.743157	0.995991
84.000000	2.776159	0.626837	2.776159	0.638036	2.776159	0.995991
85.000000	2.809161	0.633507	2.810161	0.638036	2.810161	0.995991
86.000000	2.842163	0.639259	2.842163	0.638036	2.842163	0.995991
87.000000	2.875165	0.643942	2.875165	0.638036	2.875165	0.995991
88.000000	2.908166	0.647478	2.916167	0.638036	2.916167	0.995991
89.000000	2.941168	0.649858	2.940168	0.638036	2.940168	0.995991
90.000000	2.974170	0.651130	2.979171	0.627838	2.979171	0.995991
91.000000	3.007172	0.651388	3.006172	0.627838	3.006172	0.995991
92.000000	3.040174	0.650764	3.038174	0.627838	3.038174	0.995991
93.000000	3.073175	0.649414	3.072176	0.627838	3.072176	0.995991
94.000000	3.106177	0.647507	3.105178	0.627838	3.105178	0.995991
95.000000	3.139179	0.645214	3.139180	0.627838	3.139180	0.995991
96.000000	3.172181	0.642703	3.172182	0.617640	3.172182	0.995991
97.000000	3.205183	0.640126	3.206183	0.617640	3.206183	0.995991
98.000000	3.238185	0.637620	3.239185	0.617640	3.239185	0.995991
99.000000	3.271187	0.635297	3.272187	0.617640	3.272187	1.006203
100.000000	3.304189	0.633330	3.304189	0.617640	3.304189	0.995991
101.000000	3.337191	0.631742	3.338191	0.617640	3.338191	0.995991
102.000000	3.370193	0.630540	3.370193	0.617640	3.370193	0.995991
103.000000	3.403194	0.629713	3.404195	0.617640	3.404195	0.995991
104.000000	3.436196	0.629241	3.437197	0.617640	3.437197	0.995991
105.000000	3.469198	0.629089	3.470199	0.617640	3.470199	0.995991
106.000000	3.502200	0.629215	3.502201	0.627838	3.502201	0.995991
107.000000	3.535202	0.629569	3.536202	0.627838	3.536202	0.995991
108.000000	3.568204	0.630100	3.569204	0.627838	3.569204	0.995991
109.000000	3.601206	0.630753	3.600206	0.627838	3.600206	0.995991
110.000000	3.634208	0.631480	3.634208	0.627838	3.634208	0.995991
111.000000	3.667210	0.632232	3.668210	0.627838	3.668210	0.995991
112.000000	3.700212	0.632969	3.700212	0.627838	3.700212	0.995991
113.000000	3.733213	0.633657	3.734214	0.627838	3.734214	0.995991
114.000000	3.766215	0.634268	3.766216	0.627838	3.766216	0.995991
115.000000	3.799217	0.634784	3.799218	0.627838	3.799218	0.995991
116.000000	3.832219	0.635191	3.833220	0.627838	3.833220	0.995991
117.000000	3.865221	0.635487	3.866221	0.627838	3.866221	0.995991
118.000000	3.898223	0.635672	3.899223	0.627838	3.899223	0.995991
119.000000	3.931225	0.635752	3.932225	0.627838	3.932225	0.995991
120.000000	3.964227	0.635739	3.965227	0.627838	3.965227	0.995991
121.000000	3.997229	0.635647	3.998229	0.627838	3.998229	0.995991
122.000000	4.030231	0.635491	4.031231	0.617640	4.031231	0.995991
123.000000	4.063232	0.635287	4.064233	0.617640	4.064233	0.995991
124.000000	4.096234	0.635053	4.097235	0.627838	4.097235	0.995991
125.000000	4.129236	0.634805	4.129236	0.627838	4.129236	0.995991
126.000000	4.162238	0.634556	4.163239	0.627838	4.163239	0.995991
127.000000	4.195240	0.634318	4.195240	0.627838	4.195240	0.995991
128.000000	4.228242	0.634102	4.229242	0.617640	4.229242	0.995991
129.000000	4.261244	0.633915	4.262244	0.627838	4.262244	0.995991
130.000000	4.294246	0.633763	4.294246	0.627838	4.294246	0.995991
131.000000	4.327248	0.633647	4.327248	0.627838	4.327248	0.995991
132.000000	4.360249	0.633568	4.361250	0.627838	4.361250	0.995991
133.000000	4.393251	0.633525	4.393251	0.627838	4.393251	0.995991
134.000000	4.426253	0.633515	4.426253	0.627838	4.426253	0.995991
135.000000	4.459255	0.633533	4.459255	0.627838	4.459255	0.995991
136.000000	4.492257	0.633575	4.493257	0.627838	4.493257	0.995991
137.000000	4.525259	0.633635	4.526259	0.627838	4.526259	0.995991
138.000000	4.558260	0.633708	4.558261	0.627838	4.558261	0.995991
139.000000	4.591262	0.633788	4.592263	0.627838	4.592263	0.995991
140.000000	4.624264	0.633871	4.624265	0.627838	4.624265	0.995991
141.000000	4.657266	0.633951	4.656267	0.627838	4.656267	0.995991
142.000000	4.690268	0.634026	4.690269	0.627838	4.690269	0.995991
143.000000	4.723270	0.634093	4.722270	0.627838	4.722270	0.995991
144.000000	4.756272	0.634149	4.756272	0.627838	4.756272	0.995991
145.000000	4.789274	0.634193	4.789274	0.627838	4.789274	1.006203
146.000000	4.822276	0.634312	4.822276	0.627838	4.822276	0.995991
147.000000	4.855278	0.634465	4.855278	0.627838	4.855278	0.995991
148.000000	4.888279	0.634623	4.888280	0.627838	4.888280	0.995991
149.000000	4.921281	0.634765	4.921282	0.627838	4.921282	0.995991
150.000000	4.954283	0.634877	4.954284	0.627838	4.954284	0.005455
151.000000	4.987285	0.626515	4.987286	0.627838	4.987286	0.005455
152.000000	5.020287	0.605160	5.021287	0.597244	5.021287	0.015666
153.000000	5.053289	0.569337	5.053289	0.576847	5.053289	0.005455
154.000000	5.086291	0.519594	5.087291	0.525857	5.087291	0.005455
155.000000	5.119293	0.457975	5.119293	0.464668	5.119293	0.005455
156.000000	5.152295	0.387458	5.152295	0.383084	5.152295	0.005455
157.000000	5.185297	0.311505	5.186297	0.301499	5.186297	0.005455
158.000000	5.218298	0.233692	5.219299	0.219914	5.219299	0.005455
159.000000	5.251300	0.157427	5.251301	0.148527	5.251301	0.005455
160.000000	5.284302	0.085737	5.284303	0.077141	5.284303	0.005455
161.000000	5.317304	0.021126	5.317305	0.015952	5.317305	0.005455
162.000000	5.350306	-0.034506	5.350306	-0.045237	5.350306	0.005455
163.000000	5.383308	-0.079901	5.384308	-0.086029	5.384308	0.005455
164.000000	5.416310	-0.114428	5.416310	-0.106425	5.416310	0.005455
165.000000	5.449312	-0.138041	5.449312	-0.126821	5.449312	0.005455
166.000000	5.482314	-0.151206	5.483314	-0.137020	5.483314	0.005455
167.000000	5.515316	-0.154814	5.516315	-0.126821	5.516315	0.005455
168.000000	5.548317	-0.150084	5.548317	-0.116623	5.548317	0.005455
169.000000	5.581319	-0.138457	5.583320	-0.096227	5.583320	0.005455
170.000000	5.614321	-0.121499	5.615321	-0.065633	5.615321	0.005455
171.000000	5.647323	-0.100809	5.647323	-0.055435	5.647323	0.005455
172.000000	5.680325	-0.077939	5.681325	-0.024840	5.681325	0.005455
173.000000	5.713326	-0.054321	5.714327	-0.004444	5.714327	0.005455
174.000000	5.746328	-0.031220	5.747329	0.015952	5.747329	0.005455
175.000000	5.779330	-0.009696	5.780331	0.026150	5.780331	0.005455
176.000000	5.812332	0.009423	5.816333	0.036348	5.816333	0.005455
177.000000	5.845334	0.025542	5.845335	0.046546	5.845335	0.005455
178.000000	5.878336	0.038298	5.879336	0.046546	5.879336	0.005455
179.000000	5.911338	0.047546	5.911338	0.046546	5.911338	0.005455
180.000000	5.944340	0.053330	5.943340	0.046546	5.943340	0.005455
181.000000	5.977342	0.055860	5.976342	0.036348	5.976342	0.005455
182.000000	6.010344	0.055474	6.009344	0.036348	6.009344	0.005455
183.000000	6.043345	0.052604	6.042346	0.026150	6.042346	0.005455
184.000000	6.076347	0.047744	6.076348	0.015952	6.076348	0.005455
185.000000	6.109349	0.041412	6.110350	0.005754	6.110350	0.005455
186.000000	6.142351	0.034127	6.141352	0.005754	6.141352	0.005455
187.000000	6.176353	0.026380	6.176353	-0.004444	6.176353	0.005455
188.000000	6.209355	0.018615	6.209355	-0.004444	6.209355	0.005455
189.000000	6.242357	0.011213	6.242357	-0.004444	6.242357	0.005455
190.000000	6.275359	0.004484	6.276359	-0.014642	6.276359	0.005455
191.000000	6.308361	-0.001339	6.308361	-0.014642	6.308361	0.005455
192.000000	6.341362	-0.006099	6.342363	-0.014642	6.342363	0.015666
193.000000	6.374364	-0.009630	6.374365	-0.004444	6.374365	0.005455
194.000000	6.407366	-0.011956	6.407367	-0.004444	6.407367	0.005455
195.000000	6.440368	-0.013153	6.440369	-0.004444	6.440369	0.005455
196.000000	6.473370	-0.013334	6.473371	-0.004444	6.473371	0.005455
197.000000	6.506372	-0.012645	6.506372	0.005754	6.506372	0.005455
198.000000	6.539374	-0.011250	6.540374	0.005754	6.540374	0.005455
199.000000	6.572376	-0.009320	6.572376	0.005754	6.572376	0.005455
200.000000	6.605378	-0.007031	6.606378	0.005754	6.606378	0.005455
201.000000	6.638380	-0.004548	6.638380	0.005754	6.638380	0.005455
202.000000	6.671381	-0.002020	6.672382	0.005754	6.672382	0.005455
203.000000	6.704383	0.000420	6.705384	0.005754	6.705384	0.005455
204.000000	6.737385	0.002666	6.738386	0.005754	6.738386	0.005455
205.000000	6.770387	0.004634	6.771388	0.005754	6.771388	0.005455
206.000000	6.803389	0.006267	6.805389	0.005754	6.805389	0.005455
207.000000	6.836391	0.007532	6.837391	0.005754	6.837391	0.005455
208.000000	6.869393	0.008421	6.869393	0.005754	6.869393	0.005455
209.000000	6.902395	0.008942	6.902395	0.005754	6.902395	0.015666
210.000000	6.935397	0.009210	6.936397	0.005754	6.936397	0.005455
211.000000	6.968399	0.009222	6.969399	0.005754	6.969399	0.005455
212.000000	7.001400	0.008999	7.001400	0.005754	7.001400	0.005455
213.000000	7.034402	0.008570	7.034402	0.005754	7.034402	0.005455
214.000000	7.067404	0.007978	7.068405	0.005754	7.068405	0.005455
215.000000	7.100406	0.007268	7.100406	0.005754	7.100406	0.005455
216.000000	7.133408	0.006486	7.133408	-0.004444	7.133408	0.005455
217.000000	7.166410	0.005677	7.166410	0.005754	7.166410	0.005455
218.000000	7.199411	0.004882	7.200412	0.005754	7.200412	0.005455
219.000000	7.232413	0.004136	7.232414	0.005754	7.232414	0.005455
220.000000	7.265415	0.003467	7.265416	0.005754	7.265416	0.005455
221.000000	7.298417	0.002896	7.299417	0.005754	7.299417	0.005455
222.000000	7.331419	0.002436	7.332419	0.005754	7.332419	0.005455
223.000000	7.364421	0.002093	7.365421	0.005754	7.365421	0.005455
224.000000	7.397423	0.001868	7.396423	0.005754	7.396423	0.005455
225.000000	7.430425	0.001753	7.431425	0.005754	7.431425	0.005455
226.000000	7.463427	0.001739	7.465427	0.005754	7.465427	0.005455
227.000000	7.496428	0.001813	7.498429	0.005754	7.498429	0.005455
228.000000	7.529430	0.001957	7.530431	0.005754	7.530431	0.005455
229.000000	7.562432	0.002155	7.563433	0.005754	7.563433	0.005455
230.000000	7.595434	0.002389	7.596435	0.005754	7.596435	0.005455
231.000000	7.628436	0.002643	7.629436	0.005754	7.629436	0.005455
232.000000	7.661438	0.002901	7.660439	0.005754	7.660439	0.005455
233.000000	7.694440	0.003151	7.694440	0.005754	7.694440	0.005455
234.000000	7.727442	0.003381	7.727442	-0.004444	7.727442	0.015666
235.000000	7.760444	0.003670	7.761444	0.005754	7.761444	0.005455
236.000000	7.793446	0.003971	7.794446	0.005754	7.794446	0.005455
237.000000	7.826447	0.004252	7.827448	0.005754	7.827448	0.005455
238.000000	7.859449	0.004487	7.859450	0.005754	7.859450	0.005455
239.000000	7.892451	0.004664	7.893452	0.005754	7.893452	0.005455
240.000000	7.925453	0.004775	7.926454	0.005754	7.926454	0.005455
241.000000	7.958455	0.004819	7.958456	0.005754	7.958456	0.005455
242.000000	7.991457	0.004801	7.991457	0.005754	7.991457	0.005455
243.000000	8.024459	0.004727	8.025459	-0.004444	8.025459	0.005455
244.000000	8.057461	0.004607	8.057461	0.005754	8.057461	0.005455
245.000000	8.090463	0.004452	8.090463	0.005754	8.090463	0.005455
246.000000	8.123465	0.004275	8.123465	0.005754	8.123465	0.005455
247.000000	8.156466	0.004085	8.157467	0.005754	8.157467	0.005455
248.000000	8.189468	0.003893	8.189468	0.005754	8.189468	0.005455
249.000000	8.222470	0.003709	8.222470	0.005754	8.222470	0.005455
250.000000	8.255472	0.003541	8.256473	0.005754	8.256473	0.005455
251.000000	8.288474	0.003393	8.289474	0.005754	8.289474	0.005455
252.000000	8.321476	0.003271	8.321476	0.005754	8.321476	0.005455
253.000000	8.354478	0.003176	8.354478	0.005754	8.354478	0.005455
254.000000	8.387480	0.003109	8.387480	0.005754	8.387480	0.005455
255.000000	8.420482	0.003070	8.420482	0.005754	8.420482	0.005455
256.000000	8.453484	0.003056	8.453484	0.005754	8.453484	0.005455
257.000000	8.486485	0.003065	8.487486	0.005754	8.487486	0.005455
258.000000	8.519487	0.003092	8.519487	0.005754	8.519487	0.005455
259.000000	8.552489	0.003134	8.553490	0.005754	8.553490	0.005455
260.000000	8.585491	0.003186	8.586491	0.005754	8.586491	0.005455
261.000000	8.618493	0.003246	8.618493	0.005754	8.618493	0.005455
262.000000	8.651495	0.003307	8.652495	0.005754	8.652495	0.005455
263.000000	8.684496	0.003368	8.684497	0.005754	8.684497	0.005455
264.000000	8.717498	0.003426	8.718499	0.005754	8.718499	0.005455
265.000000	8.750500	0.003478	8.750501	0.005754	8.750501	0.005455
266.000000	8.783502	0.003522	8.783503	0.005754	8.783503	0.005455
267.000000	8.816504	0.003557	8.816504	0.005754	8.816504	0.005455
268.000000	8.849506	0.003583	8.849506	0.005754	8.849506	0.005455
269.000000	8.882508	0.003601	8.883508	0.005754	8.883508	0.005455
270.000000	8.915510	0.003609	8.915510	0.005754	8.915510	0.005455
271.000000	8.948512	0.003610	8.947512	0.005754	8.947512	0.005455
272.000000	8.981514	0.003603	8.981514	0.005754	8.981514	0.005455
273.000000	9.014515	0.003592	9.018516	0.005754	9.018516	0.005455
274.000000	9.047517	0.003576	9.046518	0.005754	9.046518	0.005455
275.000000	9.080519	0.003557	9.078519	-0.004444	9.078519	0.005455
276.000000	9.113521	0.003537	9.112521	0.005754	9.112521	0.005455
277.000000	9.146523	0.003517	9.145523	0.005754	9.145523	0.005455
278.000000	9.179525	0.003497	9.178525	0.005754	9.178525	0.005455
279.000000	9.212527	0.003479	9.212527	0.005754	9.212527	0.005455
280.000000	9.245529	0.003463	9.245529	0.005754	9.245529	0.005455
281.000000	9.278531	0.003450	9.279531	0.005754	9.279531	0.005455
282.000000	9.311532	0.003440	9.312533	0.005754	9.312533	0.005455
283.000000	9.344534	0.003433	9.344535	0.005754	9.344535	0.005455
284.000000	9.377536	0.003429	9.378537	0.005754	9.378537	0.005455
285.000000	9.410538	0.003427	9.410539	-0.004444	9.410539	0.005455
286.000000	9.443540	0.003428	9.444541	0.005754	9.444541	0.005455
287.000000	9.475542	0.003431	9.476542	0.005754	9.476542	0.005455
288.000000	9.508543	0.003436	9.508544	0.005754	9.508544	0.005455
289.000000	9.541545	0.003442	9.542546	0.005754	9.542546	0.005455
290.000000	9.574547	0.003448	9.574548	0.005754	9.574548	0.005455
291.000000	9.607549	0.003455	9.606550	0.005754	9.606550	0.005455
292.000000	9.640551	0.003461	9.640552	0.005754	9.640552	0.005455
293.000000	9.673553	0.003468	9.678554	0.005754	9.678554	0.005455
294.000000	9.706555	0.003473	9.707555	-0.004444	9.707555	0.005455
295.000000	9.739557	0.003478	9.740557	0.005754	9.740557	0.005455
296.000000	9.772559	0.003482	9.773559	0.005754	9.773559	0.005455
297.000000	9.805561	0.003485	9.808561	0.005754	9.808561	0.005455
298.000000	9.838562	0.003487	9.838563	0.005754	9.838563	0.005455
299.000000	9.871564	0.003487	9.872565	0.005754	9.872565	0.005455

